\ The Herschel Orion Protostar Survey (HOPS)
\ PI: S. Thomas Megeath
\ Catalog of positions of HOPS sources
\ version 1 (April 2016)
\ HOPS_ID
\ ___ HOPS number of object
\ ra (degrees)
\ ___ Right Ascension (J2000)
\ dec (degrees)
\ ___ Declination (J2000)
\fixlen = T
| HOPS_ID      | ra          | dec          |
|char          |double       |double        |
|              | degrees     | degrees      |
|              |             |              |
  0              88.61714      1.62636       
  1              88.55140      1.70986       
  2              88.53804      1.71444       
  3              88.73736      1.71561       
  4              88.72402      1.78610       
  5              88.63401      1.80199       
  6              88.57671      1.81762       
  7              88.58352      1.84521       
  8              83.88797      -5.98511      
  9              83.95503      -5.98433      
  10             83.78752      -5.97432      
  11             83.80587      -5.96614      
  12             83.78584      -5.93174      
  13             83.85233      -5.92595      
  14             84.07988      -5.92508      
  15             84.07924      -5.92374      
  16             83.75339      -5.92380      
  17             83.77990      -5.86831      
  18             83.77288      -5.86511      
  19             83.85831      -5.85635      
  20             83.37797      -5.84473      
  21             84.04209      -5.83565      
  22             83.75220      -5.81721      
  23             84.07454      -5.78180      
  24             83.69557      -5.74749      
  25             83.84428      -5.74153      
  26             83.82225      -5.70403      
  27             84.09051      -5.69947      
  28             83.69705      -5.69885      
  29             83.70435      -5.69505      
  30             83.68359      -5.69052      
  31             83.82188      -5.67414      
  32             83.64771      -5.66642      
  33             83.68837      -5.66578      
  34             83.79541      -5.65853      
  35             83.83306      -5.65032      
  36             83.61013      -5.62792      
  37             83.69862      -5.62367      
  38             83.76966      -5.62008      
  39             84.09344      -5.60689      
  40             83.78548      -5.59983      
  41             83.62267      -5.59519      
  42             83.77100      -5.59464      
  43             83.76877      -5.58732      
  44             83.79406      -5.58509      
  45             83.77688      -5.55975      
  46             83.67582      -5.55091      
  47             83.44112      -5.54947      
  48             83.77734      -5.54767      
  49             83.70367      -5.52943      
  50             83.67045      -5.52900      
  51             83.81597      -5.50153      
  52             83.81800      -5.49239      
  53             83.48906      -5.39178      
  54             83.34366      -5.38413      
  55             83.47539      -5.36376      
  56             83.83111      -5.25909      
  57             83.83265      -5.25237      
  58             83.82711      -5.22728      
  59             83.83393      -5.22098      
  60             83.84720      -5.20085      
  61             83.35795      -5.20073      
  62             83.85241      -5.19157      
  63             83.85376      -5.16708      
  64             83.86248      -5.16504      
  65             83.83981      -5.16075      
  66             83.86185      -5.15683      
  67             83.84453      -5.14279      
  68             83.85127      -5.14183      
  69             83.85510      -5.14000      
  70             83.84339      -5.13467      
  71             83.85670      -5.13259      
  72             83.85714      -5.12956      
  73             83.86543      -5.11764      
  74             83.85360      -5.10594      
  75             83.86108      -5.10286      
  76             83.85730      -5.09943      
  77             83.88139      -5.09646      
  78             83.85760      -5.09546      
  79             83.86616      -5.09341      
  80             83.85494      -5.08596      
  81             83.86647      -5.08282      
  82             83.83219      -5.08183      
  83             83.98220      -5.07712      
  84             83.86071      -5.06531      
  85             83.86743      -5.06137      
  86             83.84853      -5.02785      
  87             83.84780      -5.02464      
  88             83.84346      -5.02060      
  89             83.83316      -5.01738      
  90             83.89364      -5.01445      
  91             83.82881      -5.01413      
  92             83.82632      -5.00916      
  93             83.81262      -5.00228      
  94             83.81730      -5.00063      
  95             83.89249      -4.99784      
  96             83.87383      -4.98022      
  97             83.87036      -4.96081      
  98             83.83051      -4.92915      
  99             83.62292      -4.92517      
  100            83.58911      -4.92078      
  101            83.78427      -4.90270      
  102            83.64658      -4.87164      
  103            83.55081      -4.83529      
  104            83.77823      -4.83384      
  105            83.88452      -4.78013      
  106            84.05181      -4.75437      
  107            83.84725      -4.66957      
  108            83.86281      -5.16677      
  109            83.78566      -5.59978      
  110            84.00928      -5.04716      
  111            83.84734      -5.20077      
  112            85.18331      -7.37858      
  113            84.99221      -7.44478      
  114            85.00572      -7.42740      
  115            84.98543      -7.43098      
  116            84.99123      -7.42031      
  117            84.98100      -7.40541      
  118            84.97743      -7.40412      
  119            84.96104      -7.39179      
  120            84.89298      -7.43651      
  121            84.89043      -7.38389      
  122            84.93803      -7.32042      
  123            84.88875      -7.38260      
  124            84.83327      -7.43644      
  125            84.83172      -7.43856      
  126            85.04083      -7.16497      
  127            84.75392      -7.33961      
  128            84.71670      -7.35168      
  129            84.79936      -7.17639      
  130            84.76233      -7.21452      
  131            84.78155      -7.18114      
  132            84.77233      -7.18479      
  133            84.77431      -7.17761      
  134            84.67825      -7.21218      
  135            84.68881      -7.18220      
  136            84.69390      -7.09374      
  137            84.72479      -7.04256      
  138            84.70136      -7.04540      
  139            84.70673      -7.02161      
  140            84.69284      -7.03152      
  141            84.70006      -7.01374      
  142            84.69903      -7.00747      
  143            84.69244      -7.01349      
  144            84.68755      -7.01715      
  145            84.68266      -7.02034      
  146            84.68399      -7.01122      
  147            84.72917      -6.93851      
  148            84.66464      -6.99176      
  149            84.66866      -6.97269      
  150            84.53136      -7.14145      
  151            84.67867      -6.94465      
  152            84.49482      -7.12370      
  153            84.48755      -7.11569      
  154            84.58372      -6.98468      
  155            84.31600      -7.29722      
  156            84.51418      -6.97106      
  157            84.48569      -6.94422      
  158            84.35191      -6.97577      
  159            84.47390      -6.78804      
  160            84.46267      -6.78900      
  161            84.14483      -7.18714      
  162            84.12906      -6.87804      
  163            84.32200      -6.60505      
  164            84.25189      -6.61958      
  165            84.09809      -6.77071      
  166            84.10469      -6.74495      
  167            84.08247      -6.76691      
  168            84.07889      -6.75631      
  169            84.15051      -6.64775      
  170            84.17221      -6.56669      
  171            84.07166      -6.63378      
  172            84.08101      -6.48522      
  173            84.10849      -6.41811      
  174            84.10773      -6.41631      
  175            84.10026      -6.41526      
  176            84.09826      -6.41432      
  177            83.95840      -6.58150      
  178            84.10253      -6.37814      
  179            84.09100      -6.39162      
  180            84.24745      -6.17100      
  181            84.08126      -6.37010      
  182            84.07847      -6.36951      
  183            84.07442      -6.37447      
  184            84.05394      -6.39184      
  185            84.15409      -6.24944      
  186            83.94699      -6.43743      
  187            83.96224      -6.37875      
  188            83.87425      -6.44949      
  189            83.87872      -6.44225      
  190            83.86874      -6.45050      
  191            84.07192      -6.18639      
  192            84.13520      -6.02117      
  193            84.12613      -6.02150      
  194            83.96667      -6.16718      
  195            84.00024      -6.12060      
  196            83.83714      -6.30620      
  197            83.56618      -6.57575      
  198            83.84240      -6.21840      
  199            83.66610      -6.42060      
  200            83.88838      -6.10268      
  201            83.52893      -6.53555      
  202            83.43300      -6.22951      
  203            84.09516      -6.76839      
  204            85.79243      -8.76886      
  205            85.76201      -8.79705      
  206            85.78025      -8.74197      
  207            85.66074      -8.83849      
  208            85.71965      -8.73686      
  209            85.72037      -8.69477      
  210            85.74279      -8.63483      
  211            85.74316      -8.62874      
  212            85.74328      -8.62822      
  213            85.70039      -8.66897      
  214            85.69677      -8.61016      
  215            85.78993      -8.49087      
  216            85.73140      -8.54674      
  217            85.79648      -8.40559      
  218            85.79124      -8.22319      
  219            85.37187      -8.71785      
  220            85.37408      -8.71278      
  221            85.69605      -8.28527      
  222            85.36117      -8.70681      
  223            85.70192      -8.27624      
  224            85.38344      -8.66937      
  225            85.37644      -8.67155      
  226            85.37525      -8.66928      
  227            85.38471      -8.63209      
  228            85.39238      -8.59103      
  229            85.69736      -8.16910      
  230            85.62833      -8.15146      
  231            85.11890      -8.54863      
  232            85.39769      -8.13958      
  233            85.46796      -8.02277      
  234            85.45812      -8.02403      
  235            85.35560      -8.09856      
  236            85.37586      -8.06154      
  237            85.37072      -8.05718      
  238            85.36099      -8.05350      
  239            85.36275      -8.01521      
  240            85.35820      -8.02107      
  241            85.35999      -8.01726      
  242            85.20215      -8.18582      
  243            85.25693      -8.11244      
  244            85.25831      -8.10052      
  245            85.34525      -7.98221      
  246            85.19632      -8.16328      
  247            85.35925      -7.94767      
  248            85.34206      -7.96750      
  249            85.22024      -8.09688      
  250            85.20351      -8.11590      
  251            85.22505      -8.08695      
  252            85.20800      -8.10230      
  253            85.36987      -7.89750      
  254            85.35215      -7.91869      
  255            85.21070      -8.09686      
  256            85.18857      -8.11171      
  257            85.33281      -7.92961      
  258            85.35296      -7.90235      
  259            85.08699      -8.23200      
  260            85.08080      -8.23788      
  261            85.32869      -7.92474      
  262            85.34986      -7.89499      
  263            85.34868      -7.89632      
  264            85.24628      -8.00397      
  265            85.33467      -7.88629      
  266            85.29921      -7.89328      
  267            85.33192      -7.84473      
  268            85.15970      -8.01000      
  269            85.36255      -7.70940      
  270            85.16889      -7.91106      
  271            85.18318      -7.82512      
  272            85.08553      -7.94434      
  273            85.08699      -7.94020      
  274            85.08631      -7.91659      
  275            85.15144      -7.81861      
  276            85.17880      -7.75053      
  277            85.18483      -7.73797      
  278            85.08479      -7.85415      
  279            85.07413      -7.80722      
  280            85.06222      -7.81353      
  281            85.10258      -7.71896      
  282            85.10870      -7.62556      
  283            85.18612      -7.49846      
  284            84.71451      -8.02429      
  285            85.02459      -7.49247      
  286            84.99458      -7.52003      
  287            85.03659      -7.45769      
  288            84.98310      -7.50777      
  289            84.98647      -7.50169      
  290            84.98922      -7.49261      
  291            84.99153      -7.48265      
  292            84.47868      -7.68898      
  293            85.24538      -7.80057      
  294            85.21548      -2.44684      
  295            85.37060      -2.38871      
  296            85.32155      -2.30212      
  297            85.34697      -2.29327      
  298            85.40489      -2.28806      
  299            85.43577      -2.26841      
  300            85.35088      -2.26845      
  301            85.43656      -2.26536      
  302            85.09339      -2.26102      
  303            85.51091      -2.12936      
  304            85.44142      -1.94059      
  305            85.43907      -1.86577      
  306            85.76298      -1.80128      
  307            85.30771      -1.78441      
  308            85.80823      -1.71951      
  309            85.69733      -1.41305      
  310            85.61532      -1.33361      
  311            85.76267      -1.27470      
  312            85.77377      -1.26508      
  313            85.25316      -1.15294      
  314            86.65049      -0.34144      
  315            86.51513      -0.24699      
  316            86.53038      -0.22306      
  317            86.53580      -0.17737      
  318            86.55626      -0.14870      
  319            86.55416      -0.13746      
  320            86.55919      -0.09079      
  321            86.63819      0.00062       
  322            86.69372      0.00448       
  323            86.69870      0.00703       
  324            86.65643      0.00944       
  325            86.66355      0.02082       
  326            86.66493      0.07128       
  327            86.61391      0.14769       
  328            86.55608      0.17590       
  329            86.75669      0.29969       
  330            86.71404      0.32983       
  331            86.61800      0.33039       
  332            86.88207      0.33912       
  333            86.84535      0.34954       
  334            86.70219      0.35784       
  335            86.77442      0.37746       
  336            86.50950      0.39187       
  337            86.72958      0.39294       
  338            86.73893      0.39729       
  339            86.47331      0.42425       
  340            86.75538      0.43931       
  341            86.75414      0.43951       
  342            86.98786      0.59094       
  343            86.99596      0.59246       
  344            86.85302      0.62644       
  345            86.91240      0.64343       
  346            86.92911      0.68264       
  347            86.81622      0.35661       
  348            86.75112      0.34376       
  349            83.85916      -5.14260      
  350            83.87585      -5.13857      
  351            83.88091      -5.07974      
  352            83.86169      -5.06749      
  353            88.55559      1.71753       
  354            88.60105      1.73872       
  355            84.32117      -6.83037      
  356            85.53407      -1.44376      
  357            85.41291      -1.86874      
  358            86.53013      -0.22497      
  359            86.85336      0.34997       
  360            86.86287      0.34254       
  361            86.76990      0.36191       
  362            84.15051      -6.64775      
  363            86.67966      0.01457       
  364            86.90239      0.33505       
  365            86.79423      0.35393       
  366            86.76659      0.36959       
  367            88.65108      1.89834       
  368            83.85302      -5.17506      
  369            83.86238      -5.17143      
  370            83.86512      -5.15930      
  371            83.79340      -5.92803      
  372            85.35976      -2.30556      
  373            86.62785      -0.04314      
  374            85.35608      -7.92193      
  375            84.82650      -7.33988      
  376            84.57562      -7.04063      
  377            84.68975      -7.01727      
  378            84.10685      -6.78789      
  379            84.28213      -6.53267      
  380            84.10541      -6.41740      
  381            83.78156      -5.69858      
  382            83.84028      -5.63274      
  383            83.87422      -4.99754      
  384            85.43369      -1.91253      
  385            86.51989      -0.23786      
  386            86.53541      -0.16740      
  387            86.53268      -0.16691      
  388            86.55470      -0.10126      
  389            86.69593      0.00751       
  390            86.88518      0.33941       
  391            86.82108      0.34814       
  392            86.56867      0.36001       
  393            86.67701      0.38369       
  394            83.84969      -5.13152      
  395            84.82082      -7.40740      
  396            84.80478      -7.21992      
  397            85.70364      -8.26964      
  398            85.37250      -2.35474      
  399            85.35390      -2.30237      
  400            85.68847      -1.27061      
  401            86.53188      -0.20576      
  402            86.54155      -0.20468      
  403            86.61561      -0.01495      
  404            87.03234      0.56411       
  405            85.24361      -8.09336      
  406            86.93067      0.63957       
  407            86.61768      0.32417       
  408            84.87812      -7.39983      
  409            83.83917      -5.22153      
